Timestamp (s),Voltage (V), Capacitance (F), Resistance (Ohms), Total Current (A)
2336.60254,0.21100,0.00000,0.00000,7.27605E-5
2336.91211,-1.64644,4.25141E-10,1.59225E+6,6.98519E-5
2337.55371,2.11000,3.79491E-10,2.29536E+6,6.98212E-5
2338.19727,-3.37054,3.56496E-10,2.21096E+6,5.94148E-5
2338.84082,-4.36064,3.33563E-10,2.64544E+6,5.93247E-5
2339.48047,-5.35301,3.15803E-10,3.01708E+6,5.93778E-5
2340.12207,-6.34306,3.01266E-10,3.33526E+6,5.90907E-5
2340.76465,-7.33741,2.88874E-10,3.62898E+6,5.91480E-5
2341.40430,-8.33236,2.77930E-10,3.90821E+6,5.90374E-5
2342.04688,-9.33254,2.68114E-10,4.19654E+6,5.91211E-5
2342.69043,-10.32775,2.59079E-10,4.49372E+6,5.89743E-5
2343.33203,-11.32720,2.50597E-10,4.80337E+6,5.90826E-5
2343.97363,-12.32957,2.42488E-10,5.14470E+6,5.89639E-5
2344.62500,-13.32926,2.34559E-10,5.51354E+6,5.90905E-5
2345.26660,-14.32767,2.26658E-10,5.95805E+6,5.90631E-5
2345.90625,-15.32692,2.18591E-10,6.46222E+6,5.90912E-5
2346.54688,-16.32525,2.10084E-10,7.14961E+6,5.89200E-5
2347.18750,-17.32809,2.00737E-10,8.06068E+6,5.90243E-5
2347.83203,-18.32875,1.89766E-10,9.47926E+6,5.89922E-5
2348.47656,-19.33274,1.75066E-10,9.57297E+6,5.89627E-5
2349.11914,-20.33564,1.38211E-10,7.09449E+6,5.91630E-5
2349.79688,-21.33427,6.75505E-11,-1.36265E+9,5.90642E-5
2350.47070,-22.05453,2.89063E-11,-7.53582E+6,5.98202E-5
2351.14648,-23.06155,1.33108E-11,5.15301E+8,5.96922E-5
2351.82227,-24.04464,1.32197E-11,4.84390E+8,5.98445E-5
2352.46289,-25.04586,1.31718E-11,6.19501E+8,5.98729E-5
2353.10156,-26.05821,1.31389E-11,5.25297E+8,5.96233E-5
2353.74316,-27.05972,1.31119E-11,5.61088E+8,5.96689E-5
2354.38770,-28.05988,1.30909E-11,5.14398E+8,5.98655E-5
2355.03223,-29.06995,1.30820E-11,5.02535E+8,5.98225E-5
2355.67383,-30.04968,1.30723E-11,4.16174E+8,5.98380E-5
2356.31445,-31.04828,1.30573E-11,3.85848E+8,5.98555E-5
2356.96875,-32.06424,1.30391E-11,6.95691E+8,5.97962E-5
2357.60938,-33.04280,1.30259E-11,5.10014E+8,5.97923E-5
2358.24902,-34.06100,1.30245E-11,5.02585E+8,5.96964E-5
2358.88965,-35.04921,1.30171E-11,4.57671E+8,5.97161E-5
2359.54004,-36.05984,1.30073E-11,5.55913E+8,5.98744E-5
2360.18457,-37.05865,1.30002E-11,4.13145E+8,5.99043E-5
2360.82715,-38.05743,1.29934E-11,5.38634E+8,5.98688E-5
2361.47070,-39.06697,1.29945E-11,5.56077E+8,5.98574E-5
2362.11328,-40.05729,1.29800E-11,5.34039E+8,5.99576E-5
2362.75293,-41.06703,1.29843E-11,5.96079E+8,5.98450E-5
2363.40625,-42.06067,1.29593E-11,4.50836E+8,5.97852E-5
2364.04688,-43.05839,1.29598E-11,5.00850E+8,5.99366E-5
2364.69531,-44.07571,1.29635E-11,4.61774E+8,5.99565E-5
2365.33496,-45.07149,1.29563E-11,5.30602E+8,5.98995E-5
2365.97852,-46.05248,1.29571E-11,4.35161E+8,6.00140E-5
2366.62305,-47.07597,1.29525E-11,6.64203E+8,5.99619E-5
2367.26953,-48.07526,1.29552E-11,8.27214E+8,5.99335E-5
2367.91113,-49.05733,1.29403E-11,5.01622E+8,6.00295E-5
2368.55176,-50.06368,1.29384E-11,6.28460E+8,6.00090E-5
2369.19434,-51.06876,1.29380E-11,4.74460E+8,5.99274E-5
2369.84570,-52.05655,1.29279E-11,4.51368E+8,5.99441E-5
2370.49121,-53.06328,1.29299E-11,4.39467E+8,6.01028E-5
2371.13281,-54.07251,1.29182E-11,5.80832E+8,6.01165E-5
2371.78418,-55.05748,1.29193E-11,5.50090E+8,6.00558E-5
2372.42480,-56.07010,1.29164E-11,4.75934E+8,6.01186E-5
2373.06543,-57.07191,1.29112E-11,5.22890E+8,5.99018E-5
2373.71582,-58.06421,1.29153E-11,5.61103E+8,6.00445E-5
2374.35742,-59.06530,1.29047E-11,4.11433E+8,5.99316E-5
2375.00000,-60.07187,1.29092E-11,4.62271E+8,6.00614E-5
2375.63965,-61.06061,1.29076E-11,4.29254E+8,6.00133E-5
2376.28027,-62.06293,1.28907E-11,4.96267E+8,6.01563E-5
2376.92969,-63.06881,1.28963E-11,5.42502E+8,6.01699E-5
2377.56934,-64.06284,1.28987E-11,4.68697E+8,6.01774E-5
2378.21973,-65.06813,1.28887E-11,5.94907E+8,6.00647E-5
2378.86230,-66.07027,1.28872E-11,4.97493E+8,6.01479E-5
2379.51465,-67.04697,1.28899E-11,5.32506E+8,5.99718E-5
2380.16309,-68.07167,1.28766E-11,5.06322E+8,6.00335E-5
2380.81445,-69.06339,1.28746E-11,4.37528E+8,6.00128E-5
2381.46484,-70.04762,1.28761E-11,5.03995E+8,6.01084E-5
2382.11426,-71.04906,1.28803E-11,4.73902E+8,6.00648E-5
2382.75586,-72.06880,1.28745E-11,6.68840E+8,6.02085E-5
2383.40137,-73.05302,1.28707E-11,4.25378E+8,6.00357E-5
2384.04199,-74.07199,1.28737E-11,5.34524E+8,6.00903E-5
2384.69141,-75.06100,1.28652E-11,5.03568E+8,6.00591E-5
2385.33594,-76.04092,1.28664E-11,4.30416E+8,6.00570E-5
2385.98926,-77.05283,1.28665E-11,4.15381E+8,6.01331E-5
2386.63770,-78.06494,1.28727E-11,5.70826E+8,6.00366E-5
2387.28809,-79.06583,1.28601E-11,6.48629E+8,6.01555E-5
2387.93750,-80.05718,1.28530E-11,4.64589E+8,6.02541E-5
2388.58789,-81.04964,1.28549E-11,4.24821E+8,6.01538E-5
2389.22754,-82.04776,1.28666E-11,4.02578E+8,6.01169E-5
2389.86719,-83.06881,1.28544E-11,3.79506E+8,6.01697E-5
2390.50586,-84.07162,1.28453E-11,5.09378E+8,6.02531E-5
2391.14844,-85.07134,1.28533E-11,4.29321E+8,6.00538E-5
2391.78711,-86.05653,1.28367E-11,4.67085E+8,6.02297E-5
2392.43066,-87.06521,1.28491E-11,4.65451E+8,6.01595E-5
2393.07617,-88.07910,1.28440E-11,3.48014E+8,6.01136E-5
2393.71680,-89.05325,1.28463E-11,3.35664E+8,6.02105E-5
2394.35742,-90.06772,1.28394E-11,2.41366E+8,6.01831E-5
2394.99805,-91.06149,1.28273E-11,1.66906E+8,6.00671E-5
2395.64063,-92.06877,1.28360E-11,6.41934E+7,6.01053E-5
2396.28418,-93.05827,1.30095E-11,9.71449E+6,6.01068E-5
2396.92773,-94.06135,1.72649E-11,517782.00000,5.75049E-5
2397.57031,-94.92734,-2.63631E-10,18481.30000,-5.74514E-5
2398.26953,-94.90352,-6.10300E-11,6526.96000,-6.39175E-5
2398.97461,-94.83906,-1.83500E-11,6626.16000,-6.98262E-5
2399.65527,-94.81400,4.59745E-10,6024.92000,-7.47126E-5
2400.38184,-94.78510,4.38724E-10,6341.59000,-7.92859E-5
2401.05566,-94.75489,5.01126E-11,7731.26000,-8.32251E-5
2401.75879,-94.75356,4.09539E-10,6988.88000,-8.66157E-5
2402.44434,-94.70580,6.21105E-11,8290.54000,-8.95972E-5
2403.18555,-94.74230,4.99364E-11,8324.28000,-9.22396E-5
2403.87109,-94.75437,3.96862E-10,6984.43000,-9.44795E-5
2404.55762,-94.75971,3.93428E-10,6847.42000,-9.64155E-5
2405.23145,-94.76629,4.08083E-10,6752.68000,-9.79688E-5
2405.90527,-94.76859,4.16924E-10,6687.72000,-9.90859E-5
2406.59180,-94.77332,5.73039E-11,7632.77000,-9.98173E-5
2407.30859,-94.78037,3.26188E-11,7633.69000,-0.00010
2407.99316,-94.77677,4.14134E-10,6625.20000,-9.99982E-5
