Timestamp (s),Voltage (V),SourceMeter Total Current (A), Pad PicoAmmeter Current (A), GR Calculated Current (A)
BEGIN
6410.89258,-2.31661E-5,2.22618E-10,3.21140E-9,-2.98879E-9
6411.96484,-1.00016,-2.77243E-11,3.26095E-9,-3.28868E-9
6413.85156,-2.00013,-1.14354E-10,-2.64594E-9,2.53158E-9
6414.49316,-3.00153,-1.74598E-10,4.64726E-9,-4.82186E-9
6415.14160,-4.00137,-2.68207E-10,4.53218E-9,-4.80038E-9
6415.78320,-5.00158,-3.19789E-10,4.85558E-9,-5.17537E-9
6416.42578,-6.00165,-4.09339E-10,3.42110E-9,-3.83043E-9
6418.30566,-7.00142,-4.27704E-10,-3.23235E-9,2.80465E-9
6418.94824,-8.00157,-4.86811E-10,2.51474E-9,-3.00155E-9
6419.58984,-9.00167,-5.68638E-10,4.40353E-9,-4.97217E-9
6420.23242,-10.00140,-6.17099E-10,-3.29676E-9,2.67966E-9
6420.87695,-11.00152,-6.83237E-10,4.56051E-9,-5.24374E-9
6421.51758,-12.00164,-7.51845E-10,3.18035E-9,-3.93220E-9
6423.40234,-13.00137,-7.55657E-10,3.27341E-9,-4.02907E-9
6425.28906,-14.00145,-7.92487E-10,3.26689E-9,-4.05937E-9
6427.16895,-15.00124,-8.29514E-10,-3.27019E-9,2.44068E-9
6427.80859,-16.00128,-9.00354E-10,3.06624E-9,-3.96659E-9
6429.68945,-17.00135,-9.40845E-10,-2.47569E-9,1.53484E-9
6430.33203,-18.00107,-1.01302E-9,3.25022E-9,-4.26325E-9
6432.21484,-19.00113,-1.05440E-9,3.52137E-9,-4.57578E-9
6434.09766,-20.00124,-1.10014E-9,-3.47828E-9,2.37814E-9
6434.74023,-21.00100,-1.18925E-9,3.23363E-9,-4.42288E-9
6436.62207,-22.07025,-9.33769E-10,3.13183E-9,-4.06560E-9
6438.50684,-23.07644,-1.43399E-9,3.07680E-9,-4.51079E-9
6440.39355,-24.06321,-1.47166E-9,2.83053E-9,-4.30220E-9
6441.03613,-25.07055,-1.19564E-9,-3.46882E-9,2.27318E-9
6441.68066,-26.07747,-1.25246E-9,4.32503E-9,-5.57749E-9
6442.32129,-27.06202,-1.34013E-9,-3.45936E-9,2.11922E-9
6442.96094,-28.06836,-1.17039E-9,3.19830E-9,-4.36869E-9
6444.84961,-29.07570,-1.71418E-9,3.25072E-9,-4.96490E-9
6446.73730,-30.06348,-1.42770E-9,4.13139E-9,-5.55910E-9
6447.37988,-31.06972,-1.72868E-9,-3.55394E-9,1.82525E-9
6448.02441,-32.07399,-1.69121E-9,4.53749E-9,-6.22870E-9
6448.66797,-33.06242,-1.47562E-9,-2.60811E-9,1.13248E-9
6449.31152,-34.06862,-1.82996E-9,-3.42639E-9,1.59643E-9
6449.95410,-35.07553,-2.08272E-9,4.51541E-9,-6.59813E-9
6450.59668,-36.06473,-2.19064E-9,-3.58231E-9,1.39167E-9
6451.23730,-37.06992,-2.23430E-9,4.29199E-9,-6.52629E-9
6451.88086,-38.07769,-2.31375E-9,3.53017E-9,-5.84391E-9
6452.52441,-39.08413,-2.03436E-9,-3.59177E-9,1.55741E-9
6453.16602,-40.07090,-2.29870E-9,4.36290E-9,-6.66160E-9
6453.80957,-41.07430,-2.04203E-9,-3.54448E-9,1.50245E-9
6454.45117,-42.08200,-1.93793E-9,3.17918E-9,-5.11711E-9
6456.33496,-43.07181,-1.87931E-9,3.34486E-9,-5.22417E-9
6458.21777,-44.07590,-1.96525E-9,3.11835E-9,-5.08360E-9
6460.09668,-45.08460,-2.38013E-9,-2.50406E-9,1.23931E-10
6460.74023,-46.06811,-2.12544E-9,-3.55171E-9,1.42626E-9
6461.38086,-47.07559,-2.14406E-9,4.49551E-9,-6.63957E-9
6462.02441,-48.08183,-2.69487E-9,-3.46881E-9,7.73933E-10
6462.66797,-49.07092,-2.74646E-9,3.33201E-9,-6.07847E-9
6463.31152,-50.07654,-2.33385E-9,4.35589E-9,-6.68974E-9
6463.95508,-51.08074,-2.49839E-9,-3.52556E-9,1.02716E-9
6464.59766,-52.06954,-2.87065E-9,4.37724E-9,-7.24789E-9
6465.24219,-53.07325,-2.94427E-9,-2.21085E-9,-7.33418E-10
6465.88281,-54.08198,-3.12639E-9,-3.46734E-9,3.40946E-10
6466.52539,-55.07093,-3.14079E-9,4.37623E-9,-7.51702E-9
6467.17480,-56.07322,-3.26133E-9,-3.68635E-9,4.25022E-10
6467.81836,-57.08603,-3.12504E-9,3.10881E-9,-6.23384E-9
6469.70410,-58.07048,-2.98783E-9,3.07726E-9,-6.06509E-9
6471.58691,-59.07676,-3.24801E-9,3.11397E-9,-6.36198E-9
6473.47070,-60.08180,-3.12663E-9,3.18971E-9,-6.31634E-9
6475.35840,-61.06794,-3.30875E-9,3.26538E-9,-6.57414E-9
6477.24316,-62.07513,-3.23044E-9,3.06742E-9,-6.29786E-9
6479.12109,-63.07980,-2.95803E-9,3.08050E-9,-6.03853E-9
6481.00781,-64.06927,-3.23662E-9,3.50187E-9,-6.73849E-9
6481.65039,-65.07205,-2.92872E-9,-3.63906E-9,7.10338E-10
6482.29492,-66.08124,-3.64403E-9,4.31727E-9,-7.96131E-9
6482.93848,-67.06767,-3.03461E-9,-3.67690E-9,6.42292E-10
6483.58008,-68.07252,-3.52053E-9,3.08576E-9,-6.60629E-9
6485.46484,-69.07993,-3.14282E-9,3.15105E-9,-6.29387E-9
6487.35352,-70.06533,-3.28217E-9,4.15747E-9,-7.43964E-9
6488.00000,-71.07275,-3.48503E-9,-3.81876E-9,3.33733E-10
6488.64453,-72.07917,-3.24826E-9,4.37643E-9,-7.62469E-9
6489.28613,-73.06847,-3.95219E-9,-3.81877E-9,-1.33413E-10
6489.92773,-74.07291,-3.77407E-9,2.95067E-9,-6.72475E-9
6491.81055,-75.07986,-3.53052E-9,3.01938E-9,-6.54990E-9
6493.69141,-76.06897,-3.64982E-9,3.16823E-9,-6.81805E-9
6495.57715,-77.07420,-4.08936E-9,2.97186E-9,-7.06122E-9
6497.45508,-78.08084,-3.68131E-9,2.97448E-9,-6.65578E-9
6499.34082,-79.06803,-4.23118E-9,2.96013E-9,-7.19131E-9
6501.22461,-80.07346,-4.11495E-9,2.04548E-9,-6.16043E-9
6501.86816,-81.08010,-3.74724E-9,-3.77148E-9,2.42389E-11
6502.50977,-82.06584,-4.11208E-9,4.25018E-9,-8.36226E-9
6503.15137,-83.07298,-4.42618E-9,-3.62014E-9,-8.06038E-10
6503.80078,-84.07981,-4.62507E-9,2.83891E-9,-7.46399E-9
6505.68359,-85.08649,-4.12253E-9,3.04568E-9,-7.16820E-9
6507.56445,-86.07404,-4.37029E-9,3.05498E-9,-7.42527E-9
6509.44727,-87.08043,-3.99996E-9,2.78286E-9,-6.78282E-9
6511.32910,-88.08511,-4.47142E-9,2.84423E-9,-7.31564E-9
6513.21094,-89.07033,-4.41058E-9,-2.12572E-9,-2.28486E-9
6513.85449,-90.08079,-4.99139E-9,-3.71473E-9,-1.27666E-9
6514.50098,-91.08572,-4.58191E-9,4.04605E-9,-8.62796E-9
6515.14551,-92.07371,-4.55894E-9,-3.97956E-9,-5.79385E-10
6515.78613,-93.07933,-4.51171E-9,3.93641E-9,-8.44812E-9
6516.43359,-94.08515,-4.68844E-9,4.05034E-9,-8.73878E-9
6517.08203,-95.07349,-4.65077E-9,-4.08360E-9,-5.67168E-10
6517.72363,-96.07912,-4.75729E-9,3.92929E-9,-8.68658E-9
6518.36719,-97.08678,-5.47419E-9,2.68745E-9,-8.16164E-9
6520.25098,-98.07198,-4.96679E-9,2.56922E-9,-7.53602E-9
6522.13477,-99.07872,-5.01278E-9,2.47504E-9,-7.48781E-9
6524.01465,-100.08527,-5.71343E-9,2.39438E-9,-8.10781E-9
6525.90039,-101.07034,-5.24980E-9,2.02648E-9,-7.27628E-9
6526.54297,-102.07774,-5.34559E-9,-4.56598E-9,-7.79607E-10
6527.18652,-103.08221,-6.13866E-9,3.38882E-9,-9.52748E-9
6527.82715,-104.07234,-6.25098E-9,-4.97269E-9,-1.27829E-9
6528.47168,-105.07801,-5.94902E-9,2.94963E-9,-8.89865E-9
6529.11426,-106.08206,-6.36133E-9,2.83013E-9,-9.19145E-9
6529.75586,-107.06958,-6.98486E-9,-5.74828E-9,-1.23658E-9
6530.39941,-108.07926,-7.21861E-9,2.25005E-9,-9.46865E-9
6531.04688,-109.08455,-7.97674E-9,-6.59954E-9,-1.37720E-9
6531.69531,-110.07276,-8.72165E-9,-1.75689E-9,-6.96476E-9
6532.74902,-111.07835,-9.58631E-9,-1.24198E-9,-8.34433E-9
6533.39063,-112.08412,-1.22966E-8,-2.73502E-9,-9.56160E-9
6534.86035,-113.07328,-1.60329E-8,-4.88982E-9,-1.11431E-8
6535.50293,-114.07917,-2.43732E-8,-1.33871E-8,-1.09861E-8
6536.14648,-115.08594,-4.81635E-8,-4.32503E-8,-4.91319E-9
6537.56738,-116.07373,-1.41405E-7,-1.34863E-7,-6.54106E-9
6538.37500,-117.07958,-1.42591E-6,-1.40231E-6,-2.35978E-8
6539.87207,-118.09557,-5.72161E-5,-0.00010,4.27842E-5
6541.20313,-117.79050,-0.00010,-0.00010,-1.71664E-9
